Day fraction since midnight on 	Photometer (mg/L)	Photometer (volts)	Source pressure (Pa)
0.5842699115	-3.5680053234	3.5417079926	104142.7500000000
0.5843277158	-3.5682957172	3.5418593884	104142.7500000000
added dye
0.5843856173	-3.5680775642	3.5417456627	104142.7500000000
0.5844435064	-3.5644764900	3.5398695469	104142.7500000000
0.5845013510	-3.5571074486	3.5360324383	104142.7500000000
0.5845592537	-3.5540540218	3.5344433784	104142.7500000000
0.5846170655	-3.5509393215	3.5328230858	104142.7500000000
0.5846749942	-3.5432264805	3.5288128853	104142.7500000000
0.5847328229	-3.5353238583	3.5247075558	104142.7500000000
0.5847906852	-3.5269215107	3.5203464031	104142.7500000000
0.5848486095	-3.5134234428	3.5133485794	104142.7500000000
0.5849064798	-3.5001399517	3.5064718723	104142.7500000000
0.5849643289	-3.4782049656	3.4951379299	104142.7500000000
0.5850221576	-3.4066464901	3.4583485126	104142.7500000000
0.5850801145	-3.3400959969	3.4243867397	104142.7500000000
0.5851379277	-3.2252991199	3.3663718700	104142.7500000000
0.5851958021	-3.0984666348	3.3031015396	104142.7500000000
0.5852536388	-2.9101207256	3.2107222080	104142.7500000000
0.5853115129	-2.6901299953	3.1051630974	104142.7500000000
0.5853693611	-2.5534791946	3.0408389568	104142.7500000000
0.5854273226	-2.4169073105	2.9774889946	104142.7500000000
0.5854850957	-2.2762842178	2.9132242203	104142.7500000000
0.5855430344	-2.1730952263	2.8666808605	104142.7500000000
0.5856009237	-2.0112960339	2.7947328091	104142.7500000000
0.5856587926	-1.8551527262	2.7264759541	104142.7500000000
0.5857165547	-1.7035619020	2.6612961292	104142.7500000000
0.5857745159	-1.6108641624	2.6219587326	104142.7500000000
0.5858323900	-1.5048880577	2.5774641037	104142.7500000000
0.5858902532	-1.4071990252	2.5368952751	104142.7500000000
0.5859479367	-1.3424484730	2.5102391243	104142.7500000000
0.5860060776	-1.2561296225	2.4749910831	104142.7500000000
0.5860638987	-1.1735594273	2.4415783882	104142.7500000000
0.5861216213	-1.0621068478	2.3969459534	104142.7500000000
0.5861795336	-0.9727430940	2.3615434170	104142.7500000000
0.5862374001	-0.8069788814	2.2967674732	104142.7500000000
0.5862952657	-0.7062601447	2.2579693794	104142.7500000000
0.5863531432	-0.6265943050	2.2275772095	104142.7500000000
0.5864110235	-0.5530284643	2.1997423172	104142.7500000000
0.5864689158	-0.5357645750	2.1932420731	104142.7500000000
0.5865267650	-0.5253511667	2.1893270016	104142.7500000000
0.5865846051	-0.4856702387	2.1744484901	104142.7500000000
0.5866425407	-0.4547903836	2.1629137993	104142.7500000000
0.5867004017	-0.4475566447	2.1602172852	104142.7500000000
0.5867582316	-0.4447262287	2.1591627598	104142.7500000000
0.5868161327	-0.4137831628	2.1476552486	104142.7500000000
0.5868739822	-0.3491245210	2.1237323284	104142.7500000000
0.5869319266	-0.3422598243	2.1212022305	104142.7500000000
0.5869898109	-0.3582602739	2.1271023750	104142.7500000000
0.5870476322	-0.3584146798	2.1271593571	104142.7500000000
0.5871054325	-0.3873933852	2.1378712654	104142.7500000000
0.5871633627	-0.4078688920	2.1454601288	104142.7500000000
0.5872212611	-0.4417323172	2.1580476761	104142.7500000000
0.5872790288	-0.4507028162	2.1613898277	104142.7500000000
0.5873369715	-0.4119887948	2.1469891071	104142.7500000000
0.5873948811	-0.4027037621	2.1435441971	104142.7500000000
0.5874526668	-0.4488663077	2.1607053280	104142.7500000000
0.5875105862	-0.4649068713	2.1666884422	104142.7500000000
0.5875684008	-0.5147494674	2.1853456497	104142.7500000000
0.5876262716	-0.5365314484	2.1935305595	104142.7500000000
0.5876841532	-0.5967492461	2.2162582874	104142.7500000000
0.5877420670	-0.6557790041	2.2386808395	104142.7500000000
0.5877999432	-0.6961736083	2.2541069984	104142.7500000000
0.5878577416	-0.7445033193	2.2726516724	104142.7500000000
0.5879156469	-0.7799516320	2.2863149643	104142.7500000000
0.5879735524	-0.8156958818	2.3001451492	104142.7500000000
0.5880313477	-0.8663798571	2.3198471069	104142.7500000000
0.5880892397	-0.9380103946	2.3478751183	104142.7500000000
0.5881471212	-0.9785714149	2.3638420105	104142.7500000000
0.5882050487	-1.0337229967	2.3856644630	104142.7500000000
0.5882628156	-1.0720289946	2.4008977413	104142.7500000000
0.5883207129	-1.1161911488	2.4185378551	104142.7500000000
0.5883786569	-1.1805714369	2.4444043636	104142.7500000000
0.5884365611	-1.2196092606	2.4601762295	104142.7500000000
0.5884943577	-1.2499263287	2.4724705219	104142.7500000000
0.5885522277	-1.2907782793	2.4891004562	104142.7500000000
0.5886100615	-1.3930404186	2.5310506821	104142.7500000000
0.5886679737	-1.4738316536	2.5645205975	104142.7500000000
0.5887258326	-1.4913939238	2.5718348026	104142.7500000000
0.5887836528	-1.5389634371	2.5917155743	104142.7500000000
0.5888415616	-1.5954294205	2.6154468060	104142.7500000000
0.5888993959	-1.6475534439	2.6374814510	104142.7500000000
