Day fraction since midnight on 	Photometer (mg/L)	Photometer (volts)	Source pressure (Pa)
0.5619903340	-3.5958456993	3.5562374592	104142.7500000000
0.5620482053	-3.5958740711	3.5562522411	104142.7500000000
added dye
0.5621061125	-3.5958127975	3.5562202930	104142.7500000000
0.5621640021	-3.5942139626	3.5553846359	104142.7500000000
0.5622218966	-3.5915212631	3.5539777279	104142.7500000000
0.5622797595	-3.5902228355	3.5532994270	104142.7500000000
0.5623376563	-3.5869646072	3.5515978336	104142.7500000000
0.5623954765	-3.5858440399	3.5510127544	104142.7500000000
0.5624532978	-3.5804312229	3.5481874943	104142.7500000000
0.5625111383	-3.5757968426	3.5457699299	104142.7500000000
0.5625690645	-3.5713181496	3.5434346199	104142.7500000000
0.5626269273	-3.5637731552	3.5395030975	104142.7500000000
0.5626848303	-3.5559520721	3.5354311466	104142.7500000000
0.5627426553	-3.5474491119	3.5310080051	104142.7500000000
0.5628005526	-3.5371501446	3.5256559849	104142.7500000000
0.5628584287	-3.5242853165	3.5189788342	104142.7500000000
0.5629162693	-3.5163495541	3.5148646832	104142.7500000000
0.5629741471	-3.5074770451	3.5102689266	104142.7500000000
0.5630320273	-3.4840438366	3.4981522560	104142.7500000000
0.5630899077	-3.4326403141	3.4716796875	104142.7500000000
0.5631477184	-3.3886914253	3.4491617680	104142.7500000000
0.5632055767	-3.2451853752	3.3763706684	104142.7500000000
0.5632634847	-3.1693828106	3.3383717537	104142.7500000000
0.5633213128	-2.9970250130	3.2531144619	104142.7500000000
0.5633791504	-2.8290781975	3.1715445518	104142.7500000000
0.5634370577	-2.6603474617	3.0910632610	104142.7500000000
0.5634948931	-2.5805435181	3.0535037518	104142.7500000000
0.5635528402	-2.4778189659	3.0056285858	104142.7500000000
0.5636107084	-2.4308252335	2.9839024544	104142.7500000000
0.5636684829	-2.3583405018	2.9506058693	104142.7500000000
0.5637264729	-2.2811982632	2.9154536724	104142.7500000000
0.5637842157	-2.2641875744	2.9077413082	104142.7500000000
0.5638421845	-2.1688239574	2.8647654057	104142.7500000000
0.5639000405	-2.1494104862	2.8560705185	104142.7500000000
0.5639578663	-2.0822067261	2.8261110783	104142.7500000000
0.5640157201	-1.9399455786	2.7634003162	104142.7500000000
0.5640736179	-1.8564990759	2.7270596027	104142.7500000000
0.5641314828	-1.8450689316	2.7221071720	104142.7500000000
0.5641893675	-1.8168492317	2.7099061012	104142.7500000000
0.5642472582	-1.8062350750	2.7053265572	104142.7500000000
0.5643050867	-1.8186047077	2.7106640339	104142.7500000000
0.5643630307	-1.7973743677	2.7015075684	104142.7500000000
0.5644208814	-1.7820616961	2.6949162483	104142.7500000000
0.5644786787	-1.7926607132	2.6994774342	104142.7500000000
0.5645365189	-1.8177068233	2.7102763653	104142.7500000000
0.5645943850	-1.7987629175	2.7021057606	104142.7500000000
0.5646522528	-1.7948210239	2.7004077435	104142.7500000000
0.5647101467	-1.8213877678	2.7118659019	104142.7500000000
0.5647680354	-1.8563015461	2.7269740105	104142.7500000000
0.5648259377	-1.8802809715	2.7373833656	104142.7500000000
0.5648837908	-1.9095528126	2.7501266003	104142.7500000000
0.5649416288	-1.9309233427	2.7594554424	104142.7500000000
0.5649995347	-1.9637975693	2.7738478184	104142.7500000000
0.5650573444	-2.0003509521	2.7899107933	104142.7500000000
0.5651152974	-2.0255987644	2.8010425568	104142.7500000000
0.5651730729	-2.0575838089	2.8151881695	104142.7500000000
0.5652309683	-2.1065597534	2.8369426727	104142.7500000000
0.5652889009	-2.1500279903	2.8563468456	104142.7500000000
0.5653467378	-2.2003667355	2.8789315224	104142.7500000000
0.5654045997	-2.2421905994	2.8977892399	104142.7500000000
0.5654624891	-2.3215157986	2.9337892532	104142.7500000000
0.5655203324	-2.3492946625	2.9464688301	104142.7500000000
0.5655782277	-2.3955755234	2.9676778316	104142.7500000000
0.5656361079	-2.4286384583	2.9828941822	104142.7500000000
0.5656939885	-2.4930191040	3.0126793385	104142.7500000000
0.5657518072	-2.5361914635	3.0327684879	104142.7500000000
0.5658096941	-2.5897083282	3.0578007698	104142.7500000000
0.5658676111	-2.6220712662	3.0730085373	104142.7500000000
0.5659253887	-2.6716825962	3.0964243412	104142.7500000000
0.5659833164	-2.7200078964	3.1193535328	104142.7500000000
0.5660411725	-2.7802126408	3.1480863094	104142.7500000000
0.5660990442	-2.8181116581	3.1662693024	104142.7500000000
0.5661569077	-2.8767359257	3.1945419312	104142.7500000000
0.5662148230	-2.9083733559	3.2098739147	104142.7500000000
0.5662726199	-2.9457888603	3.2280733585	104142.7500000000
0.5663304961	-3.0027875900	3.2559394836	104142.7500000000
0.5663883315	-3.0563523769	3.2822828293	104142.7500000000
0.5664461971	-3.1048021317	3.3062415123	104142.7500000000
0.5665041307	-3.1696865559	3.3385233879	104142.7500000000
0.5665619390	-3.2114593983	3.3594260216	104142.7500000000
0.5666198419	-3.2692868710	3.3885173798	104142.7500000000
0.5666777302	-3.3361201286	3.4223654270	104142.7500000000
0.5667355899	-3.3730931282	3.4411952496	104142.7500000000
0.5667934262	-3.4039227962	3.4569537640	104142.7500000000
0.5668513232	-3.4191334248	3.4647479057	104142.7500000000
0.5669091921	-3.4283745289	3.4694893360	104142.7500000000
0.5669671392	-3.4413957596	3.4761784077	104142.7500000000
0.5670250038	-3.4500675201	3.4806382656	104142.7500000000
0.5670828475	-3.4620544910	3.4868099689	104142.7500000000
0.5671406693	-3.4731168747	3.4925127029	104142.7500000000
0.5671985195	-3.4738624096	3.4928972721	104142.7500000000
0.5672564287	-3.4892435074	3.5008382797	104142.7500000000
0.5673142933	-3.4955208302	3.5040829182	104142.7500000000
0.5673722211	-3.5031051636	3.5080060959	104142.7500000000
0.5674300132	-3.5039842129	3.5084609985	104142.7500000000
0.5674879044	-3.5074617863	3.5102610588	104142.7500000000
0.5675457499	-3.4869172573	3.4996364117	104142.7500000000
0.5676036818	-3.4831216335	3.4976761341	104142.7500000000
0.5676615172	-3.4860582352	3.4991927147	104142.7500000000
0.5677193307	-3.4935152531	3.5030460358	104142.7500000000
0.5677772455	-3.4989991188	3.5058817863	104142.7500000000
0.5678351009	-3.5034258366	3.5081720352	104142.7500000000
0.5678930510	-3.5048060417	3.5088863373	104142.7500000000
0.5679508931	-3.5077881813	3.5104300976	104142.7500000000
0.5680086685	-3.5097153187	3.5114278793	104142.7500000000
0.5680665544	-3.5120923519	3.5126590729	104142.7500000000
0.5681245144	-3.5103104115	3.5117361546	104142.7500000000
0.5681823254	-3.5010464191	3.5069408417	104142.7500000000
0.5682401741	-3.5044703484	3.5087125301	104142.7500000000
0.5682981264	-3.5083463192	3.5107190609	104142.7500000000
0.5683560137	-3.5109996796	3.5120930672	104142.7500000000
0.5684138275	-3.5124192238	3.5128283501	104142.7500000000
0.5684716704	-3.5143263340	3.5138163567	104142.7500000000
0.5685295880	-3.5181427002	3.5157940388	104142.7500000000
0.5685874572	-3.5225470066	3.5180773735	104142.7500000000
0.5686452880	-3.5241322517	3.5188994408	104142.7500000000
0.5687031617	-3.5259315968	3.5198328495	104142.7500000000
0.5687610925	-3.5284931660	3.5211617947	104142.7500000000
0.5688189490	-3.5305600166	3.5222344398	104142.7500000000
0.5688767306	-3.5321512222	3.5230603218	104142.7500000000
0.5689346261	-3.5335123539	3.5237669945	104142.7500000000
0.5689925443	-3.5349552631	3.5245161057	104142.7500000000
0.5690503654	-3.5349612236	3.5245192051	104142.7500000000
0.5691082356	-3.5364546776	3.5252947807	104142.7500000000
0.5691661032	-3.5383083820	3.5262575150	104142.7500000000
